File: Samples/PowderCalibrations/11BM_Si640c.xy
XYDATA
! Title:  From feb10/11bmb_4918.mda processed @ 10-02-26 15:06
INTER 1.0 1.0 2 0.0010
TEMP 295.0
! Run no. =               4918
! No. steps =             34000
! Scan time =             FEB 25, 2010 17:14:00.580709
! Sample name =           Silicon (Si), NIST SRM 640c
! Chemical formula =      Si
! Start 2theta =          -6.0
! End 2theta =            28.0
! 2theta step=            0.001
! Time per step =         0.1
! Intensity scale =       5889.57
! Calibration file =      feb10/11bmb_4917.calib
! Calibrated wavelength = 0.412359
!
! 2theta, intensity, sigma(intensity)
0.500000 1015.79 46.5001
0.665000 587.133 35.4598
0.830000 463.013 31.4089
0.995000 357.907 27.5839
1.160000 282.996 24.5249
1.325000 295.713 25.0904
1.490000 318.242 26.0109
1.655000 276.945 24.1931
1.820000 200.935 20.648
1.985000 170.67 18.9744
2.150000 192.272 18.0923
2.315000 171.901 17.212
2.480000 173.007 17.1532
2.645000 144.841 15.7939
2.810000 145.707 15.7544
2.975000 160.916 16.5828
3.140000 143.021 15.7211
3.305000 139.077 15.4479
3.470000 141.968 15.5992
3.635000 127.16 14.7081
3.800000 146.576 15.8321
3.965000 135.926 15.2393
4.130000 178.987 15.8871
4.295000 162.396 15.0556
4.460000 177.791 15.7192
4.625000 181.204 15.9477
4.790000 199.629 16.7286
4.955000 200.29 16.7395
5.120000 250.294 18.7288
5.285000 219.177 17.487
5.450000 194.362 16.5165
5.615000 188.624 16.2247
5.780000 162.138 15.006
5.945000 160.159 14.959
6.110000 167.359 14.0207
6.275000 152.613 13.3343
6.440000 134.626 12.5335
6.605000 123.162 12.0068
6.770000 154.443 13.4863
6.935000 146.822 13.1479
7.100000 140.063 12.8424
7.265000 140.581 12.8278
7.430000 190.567 14.8209
7.595000 414.004 22.0035
7.760000 109.567 11.2409
7.925000 107.85 11.2526
8.090000 101.059 10.1751
8.255000 90.0446 9.594169
8.420000 96.8117 9.917869
8.585000 85.5147 9.346074
8.750000 87.3878 9.465874
8.915000 76.3825 8.894258
9.080000 75.843 8.790048
9.245000 73.8354 8.676319
9.410000 84.3103 9.303877
9.575000 97.8246 10.0034
9.740000 80.837 9.089653
9.905000 98.1636 10.0342
10.07 89.4692 8.862856
10.235 82.9248 8.601045
10.4 83.3147 8.468337
10.565 81.3532 8.538826
10.73 65.5171 7.637165
10.895 88.0669 8.842371
11.06 93.2152 9.127457
11.225 82.355 8.585464
11.39 89.6597 8.913478
11.555 99.3965 9.433663
11.72 92.6831 9.025354
11.885 106.137 9.721828
12.05 109.868 9.353384
12.215 140.714 10.6174
12.38 397.464 17.9233
12.545 112.5 9.465369
12.71 126.072 10.0819
12.875 113.783 9.594264
13.04 95.6462 8.747518
13.205 99.9122 8.975470
13.37 84.8924 8.260441
13.535 93.6786 8.721918
13.7 97.352 8.873831
13.865 94.469 8.664450
14.03 101.286 8.643371
14.195 106.941 8.794170
14.36 116.496 9.232062
14.525 226.703 12.8843
14.69 98.7914 8.443597
14.855 87.9084 8.010492
15.02 79.8292 7.554276
15.185 74.5307 7.361594
15.35 81.4641 7.710280
15.515 80.298 7.673031
15.68 73.2545 7.272091
15.845 75.8717 7.386705
16.01 72.1122 6.948741
16.175 68.0143 6.689705
16.34 72.1812 6.911572
16.505 81.9398 7.373030
16.67 77.1997 7.127575
16.835 73.7089 7.029736
17 63.2824 6.480563
17.165 70.9839 6.894696
17.33 77.9428 7.217892
17.495 344.632 15.1585
17.66 90.035 7.761404
17.825 73.055 6.917293
17.99 93.2884 7.862633
18.155 76.7668 7.120136
18.32 87.8199 7.618765
18.485 83.9314 7.437679
18.65 89.4081 7.710016
18.815 86.9816 7.552867
18.98 140.359 9.711518
19.145 119.387 8.905268
19.31 101.948 8.192626
19.475 92.405 7.817861
19.64 87.753 7.637924
19.805 96.9878 8.049246
19.97 88.6624 7.678064
20.135 110.232 8.585346
20.3 95.7765 7.931277
20.465 96.4793 8.003367
20.63 96.0096 7.955116
20.795 98.8323 8.097470
20.96 104.494 8.340309
21.125 101.98 8.224655
21.29 118.282 8.884915
21.455 1302.6 29.4742
21.62 107.182 8.432895
21.785 107.53 8.451436
21.95 106.475 8.378605
22.115 85.6469 7.480254
22.28 110.007 8.532076
22.445 97.7974 8.003382
22.61 124.143 9.130605
22.775 656.247 20.9154
22.94 110.944 8.624897
23.105 98.0577 8.081746
23.27 95.1731 7.936111
23.435 93.4446 7.842231
23.6 95.4306 7.948552
23.765 92.1203 7.849936
23.93 99.451 8.126390
24.095 90.7711 7.765690
24.26 94.9439 7.970272
24.425 101.119 8.171563
24.59 107.71 8.457633
24.755 147.936 9.905529
24.92 97.5331 8.047356
25.085 97.0361 7.977032
25.25 104.971 8.388446
25.415 103.668 8.315585
25.58 106.839 8.436796
25.745 98.1351 8.065088
25.91 190.561 11.2505
26.075 108.681 8.487561
26.24 90.3868 7.729785
26.405 89.4305 7.737939
26.57 80.7607 7.353960
26.735 82.5972 7.400860
26.9 80.692 7.260383
27.065 93.359 7.890106
27.23 76.1818 7.085042
27.395 97.1476 8.033627
27.56 87.9408 7.634309
27.725 132.07 9.364561
27.89 102.627 8.251158
28.055 88.3458 7.962753
28.22 97.1568 8.300691
28.385 79.2849 7.588158
28.55 93.7324 8.226166
28.715 88.85 8.021788
28.88 120.795 9.334518
29.045 89.9692 8.026396
29.21 88.4871 7.962766
29.375 86.353 7.923280
29.54 88.204 8.005275
29.705 101.558 8.597768
29.87 103.073 8.632188
30.035 81.8341 8.040104
30.2 81.2079 7.995420
30.365 97.3142 8.758542
30.53 126.27 10.0403
30.695 92.34 8.543251
30.86 90.0318 8.416731
31.025 80.03 8.004755
31.19 92.2748 8.569753
31.355 95.1233 8.662618
31.52 109.439 9.317729
31.685 101.021 8.949372
31.85 102.144 9.032954
32.015 95.1381 9.104858
32.18 98.3876 9.202347
32.345 96.106 9.154930
32.51 103.186 9.572313
32.675 101.352 9.504315
32.84 96.1092 9.123810
33.005 8031.26 84.0199
33.17 104.157 9.528350
33.335 102.185 9.464644
33.5 98.256 9.262095
33.665 102.13 9.445366
33.83 113.483 10.0094
33.995 111.215 9.761720
34.16 95.54 9.648112
34.325 95.2134 9.617073
34.49 94.3093 9.506812
34.655 92.5961 9.476929
34.82 98.8958 9.789633
34.985 90.9633 9.430691
35.15 69.1094 8.144359
35.315 81.9347 8.901907
35.48 92.5467 9.514502
35.645 84.9379 9.036835
35.81 87.5714 9.205228
35.975 89.6042 9.250979
36.14 90.8015 9.908404
36.305 81.7157 9.434744
36.47 70.4273 8.686294
36.635 86.6251 9.680650
36.8 75.6725 9.037384
36.965 89.3267 9.852186
37.13 81.8336 9.402071
37.295 78.2367 9.280462
37.46 90.4915 9.921480
37.625 134.046 12.0306
37.79 80.4334 9.375548
37.955 91.0918 9.915512
38.12 79.9217 10.0586
38.285 93.4971 10.8927
38.45 115.53 12.1437
38.615 73.551 9.595576
38.78 72.8076 9.624751
38.945 79.1462 10.0417
39.11 90.7127 10.7068
39.275 73.8712 9.669130
39.44 75.5459 9.777675
39.605 87.9823 10.6318
39.77 95.1702 10.9527
39.935 69.1774 9.348842
40.1 77.5705 10.9629
40.265 67.6091 10.2171
40.43 109.232 12.9277
40.595 93.5534 12.0572
40.76 93.3819 12.1065
40.925 71.7236 10.504
41.09 67.166 10.1062
41.255 109.51 13.0218
41.42 66.9825 10.2295
41.585 81.4077 11.1592
41.75 132.167 14.3917
41.915 77.0558 10.9464
42.08 82.141 12.4884
42.245 79.1621 12.1716
42.41 86.9262 12.9289
42.575 84.7535 12.6562
42.74 70.1826 11.6268
42.905 66.017 11.2244
43.07 84.2881 12.7032
43.235 78.5893 12.1594
43.4 65.3343 11.1234
43.565 88.497 12.89
43.73 85.0021 12.5689
43.895 82.6129 12.5126
44.06 86.5487 15.1141
44.225 60.5762 12.6725
44.39 881.584 48.1739
44.555 76.9951 14.2431
44.72 57.1758 12.2959
44.885 63.3085 12.8812
45.05 58.5783 12.2166
45.215 56.247 12.1028
45.38 69.94 13.5846
45.545 1000.89 51.3561
45.71 81.4764 14.6073
45.875 63.2218 12.9085
46.04 51.2354 13.836
46.205 81.9046 17.7624
46.37 72.9509 16.7525
46.535 34.1405 11.1117
46.7 78.7121 17.3285
46.865 52.3252 13.7515
47.03 81.1611 17.6699
47.195 55.9976 14.6829
47.36 46.3661 13.3856
47.525 54.224 14.3859
47.69 66.6193 15.9002
47.855 71.1764 16.3548
48.02 55.6644 19.6053
48.185 47.1108 19.2329
48.35 56.1238 20.8846
48.515 66.9096 22.7603
48.68 44.8671 18.71
48.845 55.0007 20.7883
49.01 39.3163 17.5828
49.175 104.352 28.5891
49.34 56.6963 20.9643
49.505 76.3464 23.9547
49.67 52.9406 20.4019
49.835 59.217 21.5577
49.995 39.1948 17.3219