File: Samples/PowderCalibrations/11BM_NAC.xy
XYDATA
! Title: NAC /nov12/11bmb_1804
! Run no. =               1804
! No. steps =             54000
! Scan time =             NOV 29, 2012 18:07:11.0256
! Sample Comment =        NAC
! User sample name =      1.5 mm diameter
! Composition =           Na2Ca3Al2F14
! Temp (K) =              298.0
! Start 2theta (deg) =    -16.0
! End 2theta (deg) =      38.0
! 2theta step (deg) =     0.001
! Time per step (sec) =   0.1
! Intensity scale =       9383.83
! Calibration file =      11bmb_1800_2thcorrected.calib
! 2Theta correction subtracted
! Calibrated wavelength = 0.413909
! Fullprof format INSTRM=10 (x, y, sigma)
INTER 1.0 1.0  2 0.00100
! ---------------------------------------
! degrees       intensity        sigma
0.50000       239.9326        16.0755
0.73097       320.2118        18.5656
0.96194       323.2214        18.7122
1.19291       273.8211        17.2302
1.42388       278.0145        17.3959
1.65485       272.5245        17.2139
1.88582       182.9756        14.0753
2.11679       178.4235        13.1454
2.34776       165.3049        12.6820
2.57873       186.1292        13.5120
2.80970       167.1223        12.8300
3.04067       178.2281        13.2602
3.27164     46551.1       213.9840
3.50261       171.6182        12.8905
3.73358       187.4379        13.5048
3.96455       180.4229        13.1774
4.19552       215.4660        13.7767
4.42649       238.0901        14.5252
4.65746       326.2220        17.0473
4.88843       288.6443        15.9666
5.11940       284.1484        15.8144
5.35037       266.0787        15.2678
5.58134       325.0023        16.9223
5.81231       247.0430        14.8122
6.04328       223.7503        13.3987
6.27425       237.2919        13.8052
6.50522       415.1789        18.3265
6.73619       244.3646        14.0219
6.96716       247.1118        14.0877
7.19813       228.1335        13.5555
7.42910       256.7361        14.3415
7.66007       220.6373        13.3588
7.89104       246.2850        14.0634
8.12201       252.7155        14.2782
8.35298       247.9360        14.1435
8.58395       259.4963        14.5000
8.81492       248.8310        14.1613
9.04590       228.2988        13.5238
9.27687       269.9538        14.7494
9.50784       232.9346        13.6870
9.73881       308.6436        15.8144
9.96978       278.6265        14.9736
10.20075       271.1122        14.7687
10.43172       290.3062        15.3132
10.66269       292.1783        15.3291
10.89366      1029.46        28.7719
11.12463       312.4998        15.8324
11.35560      2902.94        48.0578
11.58657       353.9600        16.9118
11.81754    258213       456.6428
12.04851       380.8418        17.4819
12.27948       576.2227        21.5626
12.51045       382.1403        17.5390
12.74142       574.5793        21.5814
12.97239       374.9389        17.3712
13.20336       391.3852        17.7679
13.43433       386.8864        17.6571
13.66530       343.1689        16.6575
13.89627       526.4717        20.5925
14.12724       365.4265        17.2114
14.35821       461.6835        19.2580
14.58918       356.0984        16.9789
14.82015       356.1911        16.9902
15.05112       718.3747        24.0418
15.28209       354.4782        16.9334
15.51306       357.1977        16.9558
15.74403      6572.66        72.4184
15.97500       346.2307        16.7841
16.20597       337.4765        16.4345
16.43694       429.7772        18.6324
16.66791       355.1845        16.9090
16.89888       336.9043        16.5209
17.12985       333.5865        16.4273
17.36082       611.6320        22.1581
17.59179       335.9130        16.4506
17.82276       336.7382        16.4471
18.05373       344.9942        16.6799
18.28470      2589.78        45.5750
18.51567       329.9411        16.2726
18.74664       355.4620        16.9053
18.97761       399.3649        17.8935
19.20858       399.7989        17.9273
19.43955      1595.95        35.8271
19.67052       398.5320        17.9536
19.90149       380.0075        17.4653
20.13246       388.6347        17.6893
20.36343       383.1086        17.5921
20.59440       413.2010        18.2861
20.82537       644.6054        22.8278
21.05634      1004.8        28.3936
21.28731       454.8042        19.1633
21.51828       492.2571        19.9402
21.74925       400.6844        17.9957
21.98022       415.6047        18.2698
22.21119       397.0213        17.9283
22.44216       377.9615        17.4665
22.67313       465.2417        19.3902
22.90410       383.3941        17.5949
23.13507       359.9020        17.0105
23.36604       362.8187        17.1112
23.59701       363.3717        17.0921
23.82798       370.1952        17.2657
24.05895       363.4939        17.1160
24.28992       362.2335        17.0177
24.52089       375.5662        17.4143
24.75186       434.4452        18.7194
24.98283       377.0456        17.5029
25.21380       367.8884        17.1811
25.44477       351.2427        16.8129
25.67575       407.3223        18.1668
25.90672       489.5007        19.8047
26.13769       376.9651        17.4736
26.36866       377.1660        17.4787
26.59963       367.1364        17.1652
26.83060       546.7923        21.0407
27.06157       400.5296        17.9524
27.29254       381.3126        17.5207
27.52351       351.6632        16.8271
27.75448       332.0745        16.3938
27.98545       388.1553        17.7093
28.21642       428.5289        18.5878
28.44739       428.0359        18.5990
28.67836       356.9889        17.0046
28.90933       329.1225        16.2710
29.14030       354.1104        16.8431
29.37127       391.1150        17.7340
29.60224       456.3135        19.1000
29.83321       399.9626        18.0154
30.06418       364.3670        17.1787
30.29515       390.3644        17.6892
30.52612      2569.05        45.4621
30.75709       398.2111        17.8952
30.98806       379.5878        17.5099
31.21903       393.7687        17.8378
31.45000       504.5791        20.1862
31.68097       412.1053        18.2770
31.91194       384.2533        17.5853
32.14291       395.5970        17.8608
32.37388       384.3068        17.5800
32.60485       400.9428        17.9917
32.83582      2184.96        42.0615
33.06679       379.8326        17.4640
33.29776       395.1977        17.8288
33.52873       473.7387        19.5723
33.75970       361.8204        17.0281
33.99067       372.9060        17.3327
34.22164       389.8691        17.7687
34.45261       345.7949        16.7208
34.68358      2824.69        47.8033
34.91455       363.6885        17.1258
35.14552       354.2453        16.9193
35.37649       320.3458        16.0640
35.60746       351.7913        16.8184
35.83843       365.0822        17.1752
36.06940       345.8543        16.6653
36.30037       585.0339        21.7661
36.53134       336.4461        16.4757
36.76231      1134.79        30.2767
36.99328       355.7866        16.8980
37.22425      1124.38        30.1199
37.45522       349.8891        16.8355
37.68619       591.0898        21.8917
37.91716       363.3861        17.1633
38.14813      1023.22        29.8301
38.37910       356.4530        17.6181
38.61007       335.8742        17.1733
38.84104       361.4763        17.7856
39.07201       348.9838        17.4145
39.30298       344.9832        17.3502
39.53395       358.9425        17.6590
39.76492       349.6397        17.4752
39.99589       337.7419        17.9708
40.22686       497.2935        21.7566
40.45783       327.0653        17.6475
40.68880       355.2152        18.4686
40.91977       347.8720        18.2227
41.15074       347.4834        18.1802
41.38171       350.9600        18.3341
41.61268       436.2966        20.4270
41.84365       342.9939        18.1193
42.07462       337.7965        19.0026
42.30560       320.0629        18.3942
42.53657       324.4283        18.5090
42.76754       418.6410        21.0194
42.99851       329.0896        18.6507
43.22948       303.2042        17.9248
43.46045       331.5972        18.7779
43.69142       333.8201        18.8023
43.92239       307.5682        17.9701
44.15336       328.4064        19.6222
44.38433      1004.64        34.2073
44.61530       323.2348        19.3949
44.84627       316.6671        19.1857
45.07724       289.5547        18.2599
45.30821       445.3702        22.8031
45.53918       314.0644        19.2194
45.77015       305.2362        18.9333
46.00112       313.2741        20.2472
46.23209       391.5174        22.5257
46.46306       296.8833        19.6534
46.69403       289.5761        19.4984
46.92500       293.6412        19.5200
47.15597       295.6472        19.5736
47.38694       314.7756        20.1950
47.61791       259.7647        18.3148
47.84888       283.1847        19.2318
48.07985       273.9467        20.2946
48.31082       254.8231        19.6009
48.54179       259.9943        19.9027
48.77276       301.9431        21.4381
49.00373       426.6428        25.4041
49.23470       282.5511        20.6809
49.46567       278.6302        20.5585
49.69664       218.2601        18.1489
49.92761       266.9588        20.1170
50.15858       246.4854        21.3232
50.38955       219.3376        20.1056
50.62052       243.0544        21.2399
50.85149       270.6257        22.3772
51.08246       392.5950        27.0077
51.31343       278.9152        22.7959
51.54440       277.6673        22.6104
51.77537       256.3555        21.8206
52.00634       209.8662        21.7801
52.23731       282.0928        25.2247
52.46828       183.0712        20.3824
52.69925       228.3203        22.8140
52.93022       217.2827        22.0364
53.16119       225.6545        22.5876
53.39216       276.9070        25.0497
53.62313       258.7479        24.2884
53.85410       236.1317        23.0954
54.08507       236.1227        27.1249
54.31604       245.0786        27.6944
54.54701       233.9111        27.0285
54.77798       202.7697        25.1762
55.00895       207.9076        25.4983
55.23992       239.2484        27.2374
55.47089       195.4236        24.6606
55.70186       204.1827        25.2272
55.93283       184.0739        23.9708
56.16380       244.8937        33.4838
56.39477       211.5164        31.0660
56.62574       270.6207        35.0403
56.85671       224.2050        31.9857
57.08768       206.9383        30.5840
57.31865       202.4482        30.2734
57.54962       211.1353        30.9776
57.78059       206.3143        30.5261
58.01156       193.5243        41.8799
58.24253       184.3546        41.1763
58.47350       185.1800        41.3629
58.70447       148.3091        36.9394
58.93545       205.4148        43.4504
59.16642       202.5188        42.7129
59.39739       221.4174        45.2165
59.62836       175.3607        40.2305
59.85933       148.1074        36.7006
59.98931       205.5382        43.0983