File: Samples/PowderCalibrations/Al2O3_676a.xy
XYDATA
! Title: 11-BM data for Al2O3 SRM 676a
INTER 1.0 1.0 2 0.0010
TEMP 295.0
! Fullprof format INSTRM=10 (x, y, sigma)
! File no. =               4714
! No. steps =             34500
! Scan time =             MAY 31, 2014 22:53
! Sample name =     	  NIST SRM 676a (Al2O3)
! Composition =           Aluminium Oxide (Al2O3)
! Sample Comment =        0.8 mm dia Kapton
! Temp (K) =              295.6
! 2theta step (deg) =     0.001
! Time per step (sec) =   0.1
! 100/Ring Current[0] =   0.983
! Monitor I0 [0] =        92715.5
! Monitor I1 [0] =        75723.2
! Gonio._radius [mm] =    1000.0
! Calibration file =      11bmb_4699_2thcorr.calib
! 2Theta correction subtracted
! Normalization factor  = 8.3433
! Calibrated wavelength = 0.413671
!
! 2theta, intensity, sigma(intensity)
2.000000 151.392 16.3038
2.159975 136.788 15.524
2.319950 128.898 15.0339
2.479926 100.658 13.3279
2.639901 130.522 15.1283
2.799876 96.2777 12.9724
2.959851 104.07 13.4511
3.119826 101.824 13.2362
3.279801 87.995 12.3966
3.439777 108.533 13.7805
3.599752 107.665 12.4696
3.759727 100.04 11.849
3.919702 101.743 12.1059
4.079677 122.381 13.1133
4.239653 104.032 12.184
4.399628 120.818 13.1653
4.559603 131.006 13.6566
4.719578 116.052 12.7665
4.879553 120.042 13.1113
5.039528 142.181 14.145
5.199504 136.53 13.9462
5.359479 134.858 13.8076
5.519454 117.115 11.7673
5.679429 118.124 11.8944
5.839404 113.924 11.6333
5.999380 104.395 11.2175
6.159355 110.104 11.4291
6.319330 84.8079 10.0222
6.479305 92.9063 10.5673
6.639280 99.2966 10.8963
6.799255 1200.18 37.8431
6.959231 85.9244 10.0293
7.119206 83.3762 9.897988
7.279181 72.5095 9.205380
7.439156 62.8469 8.641184
7.599131 84.13 9.328817
7.759107 63.6882 8.081740
7.919082 67.5426 8.334535
8.079057 58.779 7.870976
8.239032 58.0976 7.751265
8.399007 53.734 7.365578
8.558982 56.6209 7.675318
8.718958 45.2517 6.825863
8.878933 54.1466 7.425821
9.038908 46.5465 6.935165
9.198883 84.755 9.454832
9.358858 202.76 14.6157
9.518834 52.6884 6.793686
9.678809 50.4906 6.700359
9.838784 53.5781 6.961701
9.998759 312.64 16.7968
10.1587 58.4783 7.327312
10.3187 51.046 6.767868
10.4787 46.9085 6.582709
10.6387 44.3746 6.316526
10.7986 44.7378 6.271562
10.9586 168.55 12.4037
11.1186 48.1954 6.664723
11.2786 123.946 10.6587
11.4385 277.422 15.8961
11.5985 60.7927 7.044985
11.7585 52.2273 6.548148
11.9185 57.7667 6.857916
12.0784 108.315 9.422625
12.2384 57.6654 6.936371
12.3984 46.5981 6.198269
12.5584 47.841 6.215731
12.7183 44.3813 6.009088
12.8783 43.8035 6.019745
13.0383 43.855 6.065129
13.1983 41.14 5.794804
13.3582 51.0975 6.380984
13.5182 63.8077 6.879545
13.6782 487.845 19.1691
13.8382 56.3741 6.447309
13.9981 46.3232 5.844479
14.1581 44.1467 5.659074
14.3181 47.2994 5.904575
14.4781 43.9689 5.656898
14.638 64.0822 6.908628
14.798 508.468 19.4776
14.958 93.6987 8.361018
15.118 47.8006 5.951464
15.2779 50.6893 6.156922
15.4379 50.4988 6.147504
15.5979 49.7872 5.794493
15.7579 144.116 9.889500
15.9178 48.4243 5.747989
16.0778 46.2607 5.553929
16.2378 39.1997 5.078657
16.3978 54.6643 6.143661
16.5577 54.4179 6.028088
16.7177 52.1775 5.938316
16.8777 163.136 10.4914
17.0377 83.4735 7.590605
17.1976 81.7271 7.442198
17.3576 331.316 15.0442
17.5176 59.6789 6.371537
17.6776 38.1741 5.132237
17.8375 56.1642 6.158224
17.9975 49.3322 5.752725
18.1575 51.803 5.947924
18.3175 47.9063 5.721380
18.4774 57.6412 6.150449
18.6374 69.6729 6.851456
18.7974 47.3619 5.673253
18.9574 47.6872 5.699899
19.1173 67.0644 6.730936
19.2773 320.459 14.7756
19.4373 49.6174 5.798262
19.5973 48.8022 5.734476
19.7572 56.4774 6.199116
19.9172 53.7318 5.986379
20.0772 69.2515 6.854428
20.2372 44.0854 5.456989
20.3971 43.4753 5.362111
20.5571 71.0488 6.971505
20.7171 71.6068 7.012280
20.8771 48.1729 5.661610
21.037 50.8818 5.899835
21.197 371.075 15.9689
21.357 51.2761 5.854974
21.517 49.531 5.739404
21.6769 245.691 12.991
21.8369 49.7883 5.771231
21.9969 76.1064 7.217001
22.1569 100.585 8.301808
22.3168 49.7088 5.799817
22.4768 49.1819 5.748371
22.6368 53.5795 6.085405
22.7968 101.435 8.353733
22.9567 86.5788 7.695529
23.1167 48.7312 5.733366
23.2767 48.5475 5.757509
23.4367 99.1775 8.222363
23.5966 45.2928 5.549221
23.7566 48.2019 5.704203
23.9166 629.578 20.786
24.0766 50.7014 5.847188
24.2366 88.7741 7.778456
24.3965 47.2476 5.638198
24.5565 52.769 6.004175
24.7165 51.1522 5.863107
24.8765 41.0562 5.266680
25.0364 40.2213 5.241288
25.1964 46.8854 5.579920
25.3564 48.3258 5.735613
25.5164 72.9099 7.073035
25.6763 48.5865 5.787904
25.8363 49.4084 5.804102
25.9963 64.8012 6.625558
26.1563 51.0689 5.866059
26.3162 229.811 12.5633
26.4762 83.5516 7.566235
26.6362 78.2756 7.346569
26.7962 47.9386 5.690522
26.9561 37.4978 5.022284
27.1161 58.1832 6.291609
27.2761 46.4048 5.603248
27.4361 56.954 6.234692
27.596 44.0604 5.473851
27.756 55.7487 6.176641
27.916 186.792 11.3621
28.076 67.5724 6.954533
28.2359 60.9327 6.642293
28.3959 52.4732 6.297173
28.5559 47.5041 5.942585
28.7159 56.5338 6.475545
28.8758 136.674 10.0339
29.0358 52.9495 6.320245
29.1958 44.9246 5.797598
29.3558 61.2403 6.761785
29.5157 55.2756 6.351605
29.6757 227.859 13.1304
29.8357 55.2845 6.493582
29.9957 234.558 13.8765
30.1556 72.9774 7.729160
30.3156 55.3427 6.666157
30.4756 50.1443 6.388671
30.6356 40.8333 5.867104
30.7955 41.5457 5.756756
30.9555 40.7267 5.773084
31.1155 49.7781 6.346863
31.2755 54.373 6.726476
31.4354 225.695 13.6352
31.5954 56.6495 6.836818
31.7554 69.5534 7.545440
31.9154 48.863 6.296866
32.0753 40.7497 6.056050
32.2353 50.3678 6.907502
32.3953 43.4739 6.381505
32.5553 50.6009 6.644273
32.7152 39.9377 6.040399
32.8752 36.2753 5.857683
33.0352 38.8635 5.913977
33.1952 45.2333 6.287185
33.3551 167.226 12.3407
33.5151 47.2061 6.541924
33.6751 51.075 6.819463
33.8351 41.48 6.111155
33.995 37.625 6.046900
34.155 44.2221 6.696571
34.315 52.6756 7.295327
34.475 45.6187 6.749755
34.6349 48.3408 7.068293
34.7949 47.3015 6.832043
34.9549 41.435 6.473973
35.1149 47.4544 6.983461
35.2748 45.8586 6.629590
35.4348 35.0401 5.909509
35.5948 40.8685 6.343320
35.7548 101.847 10.1162
35.9147 44.3753 6.460846
36.0747 242.69 16.5446
36.2347 44.139 6.990560
36.3947 306.243 18.6206
36.5546 44.9492 7.032934
36.7146 57.5144 8.040708
36.8746 47.9253 7.359848
37.0346 41.2087 6.870394
37.1945 35.8557 6.273117
37.3545 35.3789 6.310569
37.5145 200.324 14.9999
37.6745 58.1052 8.096291
37.8344 47.8051 7.161506
37.9944 45.2065 7.571147
38.1544 46.3818 7.679523
38.3144 50.694 8.140925
38.4743 61.1866 9.175887
38.6343 123.123 12.6522
38.7943 36.7149 6.918768
38.9543 41.9232 7.321902
39.1142 41.9041 7.452027
39.2742 51.0555 8.158242
39.4342 41.0508 7.247127
39.5942 50.4812 8.158150
39.7541 39.2139 7.021811
39.9141 44.6429 7.694804
40.0741 42.3452 8.390774
40.2341 56.0552 9.637414
40.394 70.085 10.6322
40.554 72.8515 10.994
40.714 63.8989 10.1448
40.874 37.7201 7.606748
41.0339 35.2573 7.564960
41.1939 26.8123 6.675286
41.3539 61.2721 9.887635
41.5139 26.3172 6.569443
41.6738 37.4936 7.758560
41.8338 183.842 17.3865
41.9938 42.2641 9.054272
42.1538 43.5589 9.343585
42.3137 43.7678 9.223168
42.4737 52.3394 10.3791
42.6337 37.0296 8.708647
42.7937 30.6428 7.787193
42.9536 106.58 14.5086
43.1136 189.396 19.4793
43.2736 45.245 9.398938
43.4336 33.8436 8.025278
43.5935 30.4278 7.686400
43.7535 39.8124 8.941633
43.9135 52.346 10.247
44.0735 26.8798 8.668174
44.2334 63.0799 13.2495
44.3934 64.7725 13.4284
44.5534 33.8313 9.442743
44.7134 26.5445 8.435255
44.8733 34.0608 9.750235
45.0333 31.7268 9.337553
45.1933 27.7712 8.732440
45.3533 55.4633 12.3969
45.5132 28.9097 8.903213
45.6732 34.6715 9.735304
45.8332 25.0834 7.985628
45.9932 125.312 22.4172
46.1531 85.1372 18.3815
46.3131 25.4575 10.1114
46.4731 28.0921 10.606
46.6331 28.0444 10.3472
46.7931 102.076 20.0723
46.953 117.415 21.6548
47.113 23.9838 9.744286
47.273 20.9939 8.710642
47.433 22.2437 9.447447
47.5929 29.8146 10.8858
47.7529 36.2311 12.0394
47.9129 35.7231 11.9516
48.0729 48.0629 19.7487
48.2328 30.8106 15.7641
48.3928 37.4671 17.2114
48.5528 27.7528 14.9893
48.7128 26.213 14.4197
48.8727 44.6239 18.7168
49.0327 48.9797 19.9775
49.1927 43.086 18.4569
49.3527 29.4427 15.4551
49.5126 21.0485 13.0369
49.6726 19.8097 12.65
49.8326 37.6384 17.3782
49.9896 25.2399 14.3261