File: Samples/PowderCalibrations/CeO2_674b.xy
XYDATA
! Title:  11BM APS CeO2
INTER 1.0 1.0 2 0.0010
TEMP 295.0
! Fullprof format INSTRM=10 (x, y, sigma)
! File no. =               4717
! No. steps =             34500
! Scan time =             JUN 01, 2014 01:51
! Sample name =           NIST SRM 674b (CeO2)
! Composition =           Cerium(IV) oxide
! Sample Comment =        0.8 mm dia Kapton
! Temp (K) =              295.0
! 2theta step (deg) =     0.001
! Time per step (sec) =   0.1
! 100/Ring Current[0] =   0.982
! Monitor I0 [0] =        92926.4
! Monitor I1 [0] =        75877.3
! Gonio._radius [mm] =    1000.0
! Calibration file =      11bmb_4699_2thcorr.calib
! 2Theta correction subtracted
! Calibrated wavelength = 0.413671
! Normalization factor  = 8.3538
!
! 2theta, intensity, sigma(intensity)
2.000000 114.403 14.2031
2.159975 126.587 14.9235
2.319950 84.8779 12.3135
2.479926 103.181 13.4688
2.639901 67.608 10.9302
2.799876 88.6157 12.4114
2.959851 84.5592 12.3693
3.119826 68.8929 10.9328
3.279801 75.0181 11.5244
3.439777 91.5239 12.6368
3.599752 86.8844 11.0283
3.759727 89.641 11.3068
3.919702 88.0376 11.1754
4.079677 78.7857 10.6214
4.239653 85.8827 11.1132
4.399628 117.106 12.9232
4.559603 118.993 13.0341
4.719578 106.999 12.2722
4.879553 105.981 12.3834
5.039528 93.9939 11.5422
5.199504 120.177 13.0757
5.359479 101.429 12.0373
5.519454 119.441 11.9094
5.679429 123.142 12.1087
5.839404 93.3801 10.5164
5.999380 86.6652 10.2749
6.159355 90.9595 10.3741
6.319330 96.3751 10.6654
6.479305 84.5199 9.956441
6.639280 69.9284 9.119601
6.799255 81.545 9.894130
6.959231 100.151 10.9067
7.119206 106.695 11.2192
7.279181 131.343 12.5366
7.439156 233.288 16.5462
7.599131 92472.2 312.208
7.759107 188.911 14.125
7.919082 108.611 10.5893
8.079057 91.5749 9.816416
8.239032 105.069 10.5601
8.399007 84.825 9.463513
8.558982 89.6305 9.663705
8.718958 589.069 24.9305
8.878933 131.862 11.832
9.038908 77.2067 8.981330
9.198883 68.413 8.465331
9.358858 65.7943 8.318626
9.518834 61.4741 7.491317
9.678809 64.8976 7.631018
9.838784 69.2975 7.950605
9.998759 59.4739 7.318526
10.1587 73.3249 8.172877
10.3187 76.4515 8.286331
10.4787 54.0697 6.883293
10.6387 62.6603 7.512784
10.7986 61.268 7.457901
10.9586 63.4311 7.567659
11.1186 63.8626 7.649132
11.2786 74.3097 8.176173
11.4385 61.8607 7.448122
11.5985 84.9825 8.447338
11.7585 87.8025 8.476134
11.9185 74.6423 7.832886
12.0784 102.404 9.185931
12.2384 160.314 11.4608
12.3984 21752.8 134.16
12.5584 180.411 12.2479
12.7183 119.372 9.922928
12.8783 94.3741 8.860229
13.0383 86.7431 8.449241
13.1983 101.619 9.126458
13.3582 88.0611 8.452773
13.5182 78.2301 7.616598
13.6782 93.6824 8.363550
13.8382 95.672 8.433532
13.9981 100.763 8.635186
14.1581 93.6927 8.323503
14.3181 120.219 9.491464
14.4781 336.172 15.8217
14.638 531.138 19.9116
14.798 119.94 9.494090
14.958 106.013 8.856734
15.118 137.28 10.0931
15.2779 220.211 12.8558
15.4379 90.1248 8.161221
15.5979 75.3941 7.139379
15.7579 71.5504 6.963032
15.9178 75.0859 7.117182
16.0778 67.3728 6.746106
16.2378 81.9333 7.510405
16.3978 75.3283 7.083132
16.5577 71.8349 6.988161
16.7177 69.8004 6.904513
16.8777 70.5911 6.889439
17.0377 65.2504 6.650754
17.1976 83.4304 7.530314
17.3576 85.2526 7.617415
17.5176 176.543 10.993
17.6776 138.541 9.784712
17.8375 90.4146 7.854435
17.9975 89.4573 7.775986
18.1575 89.1988 7.838688
18.3175 89.0358 7.751294
18.4774 86.2931 7.682071
18.6374 87.5315 7.701019
18.7974 108.937 8.620853
18.9574 120.825 9.083235
19.1173 402.006 16.659
19.2773 205.159 11.8894
19.4373 137.387 9.674602
19.5973 184.46 11.204
19.7572 225.156 12.3977
19.9172 103.086 8.330681
20.0772 105.867 8.535421
20.2372 108.318 8.613916
20.3971 105.246 8.487255
20.5571 98.1432 8.162828
20.7171 101.591 8.306264
20.8771 99.2964 8.227075
21.037 134.891 9.655218
21.197 116.003 8.932646
21.357 114.683 8.856255
21.517 370.318 15.8941
21.6769 201.204 11.6862
21.8369 124.955 9.190403
21.9969 109.797 8.650617
22.1569 106.305 8.505211
22.3168 100.507 8.216067
22.4768 102.792 8.373579
22.6368 114.25 8.793307
22.7968 145.202 9.957667
22.9567 560.972 19.6265
23.1167 123.519 9.136730
23.2767 101.544 8.264144
23.4367 94.019 8.002666
23.5966 100.597 8.285227
23.7566 77.7341 7.308868
23.9166 87.9663 7.737075
24.0766 91.959 7.881410
24.2366 87.2562 7.664594
24.3965 88.3825 7.775219
24.5565 95.062 8.043116
24.7165 110.164 8.690095
24.8765 126.963 9.309608
25.0364 186.24 11.2505
25.1964 106.387 8.449626
25.3564 102.616 8.299810
25.5164 100.733 8.273716
25.6763 121.392 9.115329
25.8363 129.257 9.390386
25.9963 147.611 10.0545
26.1563 3263.17 47.1971
26.3162 143.483 9.913761
26.4762 450.416 17.5573
26.6362 141.072 9.796303
26.7962 119.707 8.995282
26.9561 112.737 8.731412
27.1161 103.161 8.419763
27.2761 98.8335 8.221880
27.4361 100.33 8.279157
27.596 111.864 8.728510
27.756 118.677 8.966752
27.916 226.419 12.4177
28.076 132.581 9.909843
28.2359 114.344 9.140042
28.3959 102.275 8.760825
28.5559 99.2809 8.583931
28.7159 110.636 9.066398
28.8758 95.9843 8.350800
29.0358 7611.98 75.2277
29.1958 131.347 9.867140
29.3558 1230.57 30.2233
29.5157 117.313 9.346411
29.6757 103.57 8.716051
29.8357 86.1792 7.997745
29.9957 99.7485 9.052819
30.1556 103.105 9.226932
30.3156 101.513 9.076914
30.4756 111.932 9.585720
30.6356 113.232 9.599823
30.7955 106.348 9.358716
30.9555 100.764 9.050960
31.1155 95.8808 8.810365
31.2755 125.267 10.0932
31.4354 111.377 9.586697
31.5954 197.583 12.6205
31.7554 203.488 12.854
31.9154 161.835 11.4406
32.0753 135.605 11.0038
32.2353 118.11 10.3632
32.3953 121.282 10.3976
32.5553 120.82 10.4477
32.7152 101.677 9.527501
32.8752 129.189 10.7639
33.0352 133.329 10.939
33.1952 432.589 19.8301
33.3551 159.765 11.9656
33.5151 134.306 11.0315
33.6751 130.055 10.9395
33.8351 130.497 10.7951
33.995 145.592 12.0886
34.155 6497.09 80.7071
34.315 127.763 11.3524
34.475 108.147 10.3731
34.6349 109.285 10.5203
34.7949 97.9618 9.809755
34.9549 87.3194 9.290947
35.1149 105.3 10.2072
35.2748 98.716 9.848311
35.4348 106.826 10.2656
35.5948 471.389 21.7323
35.7548 110.864 10.5176
35.9147 103.905 10.308
36.0747 96.6151 10.352
36.2347 94.5069 10.2413
36.3947 134.95 12.3337
36.5546 132.962 12.1557
36.7146 441.248 22.0745
36.8746 123.942 11.7498
37.0346 105.358 10.8049
37.1945 98.7124 10.4051
37.3545 94.3207 10.2085
37.5145 108.167 10.9611
37.6745 135.006 12.3023
37.8344 1988.61 47.0814
37.9944 108.42 11.9434
38.1544 119.394 12.4244
38.3144 108.31 11.9299
38.4743 122.172 12.5611
38.6343 715.26 30.5856
38.7943 133.822 13.1161
38.9543 269.794 18.7
39.1142 101.968 11.6012
39.2742 98.9207 11.4149
39.4342 106.527 11.7981
39.5942 106.51 11.7284
39.7541 94.2991 11.0592
39.9141 156.398 14.2711
40.0741 117.738 13.7991
40.2341 122.116 14.0874
40.394 118.781 13.8143
40.554 115.891 13.4054
40.714 344.951 23.5977
40.874 146.316 15.2401
41.0339 458.59 27.0141
41.1939 138.407 14.9497
41.3539 117.092 13.8202
41.5139 98.7422 12.5123
41.6738 107.581 13.0235
41.8338 115.578 13.5594
41.9938 305.397 24.3496
42.1538 104.187 14.1478
42.3137 94.0668 13.3956
42.4737 98.5916 13.84
42.6337 110.409 14.6485
42.7937 367.43 26.7784
42.9536 109.684 14.6161
43.1136 101.825 13.9948
43.2736 84.0917 12.6711
43.4336 104.53 14.4493
43.5935 96.1865 13.573
43.7535 98.2651 13.9852
43.9135 101.091 13.9088
44.0735 108.229 17.06
44.2334 83.9098 14.9333
44.3934 132.317 19.051
44.5534 107.654 17.0992
44.7134 2825.59 87.7436
44.8733 106.909 17.0315
45.0333 107.02 17.041
45.1933 125.274 18.3558
45.3533 114.294 17.6786
45.5132 87.6089 15.3264
45.6732 97.882 16.2498
45.8332 276.885 27.5493
45.9932 125.135 22.1732
46.1531 102.012 19.9171
46.3131 136.584 23.1591
46.4731 130.472 22.6468
46.6331 209.034 28.6066
46.7931 496.997 44.1414
46.953 93.1679 19.1286
47.113 110.15 20.8179
47.273 86.8565 18.4107
47.433 80.0881 17.6626
47.5929 72.8068 16.9067
47.7529 99.606 19.7296
47.9129 131.484 22.6836
48.0729 72.1791 23.9285
48.2328 116.293 30.3421
48.3928 3436.84 165.263
48.5528 154.204 34.9977
48.7128 145.842 33.9534
48.8727 114.259 30.0585
49.0327 79.6795 25.1717
49.1927 129.309 31.984
49.3527 79.5862 25.1674
49.5126 1806.37 119.909
49.6726 144.495 33.9084
49.8326 163.989 35.9596
49.9896 103.213 28.6763