File: Samples/PowderCalibrations/Cr2O3_674b.xy
XYDATA
! Title: 11BM APS Cr2O3 SRM 674b
INTER 1.0 1.0 2 0.0010
TEMP 295.0
! Fullprof format INSTRM=10 (x, y, sigma)
! File no. =               4716
! No. steps =             34500
! Scan time =             JUN 01, 2014 00:52
! Sample name =     	   NIST SRM 674b (Cr2O3)
! Composition =            Chromium(III) oxide
! Sample Comment =         0.8 mm dia Kapton
! Temp (K) =              295.0
! 2theta step (deg) =     0.001
! Time per step (sec) =   0.1
! 100/Ring Current[0] =   0.984
! Monitor I0 [0] =        92666.8
! Monitor I1 [0] =        75642.1
! Gonio._radius [mm] =    1000.0
! Calibration file =      11bmb_4699_2thcorr.calib
! 2Theta correction subtracted
! Normalization factor  = 8.3664
! Calibrated wavelength = 0.413671
!
! 2theta, intensity, sigma(intensity)
2.000000 148.184 16.2272
2.159975 123.855 14.7783
2.319950 115.784 14.2864
2.479926 91.3213 12.6176
2.639901 107.084 13.8403
2.799876 104.172 13.5917
2.959851 114.591 14.1997
3.119826 99.2517 13.1526
3.279801 84.1184 11.9994
3.439777 118.491 14.4521
3.599752 80.3172 10.7178
3.759727 95.4522 11.6133
3.919702 122.96 13.2921
4.079677 109.74 12.4983
4.239653 98.8341 11.9224
4.399628 112.688 12.6825
4.559603 132.431 13.5753
4.719578 126.066 13.4263
4.879553 109.654 12.3457
5.039528 128.48 13.5817
5.199504 137.086 14.053
5.359479 127.268 13.5122
5.519454 141.717 13.0089
5.679429 101.22 10.9004
5.839404 98.9676 10.9405
5.999380 98.9345 10.777
6.159355 98.7206 10.923
6.319330 105.639 11.2296
6.479305 501.952 24.4327
6.639280 144.415 13.1264
6.799255 114.604 11.6652
6.959231 110.194 11.4836
7.119206 90.4951 10.3761
7.279181 97.4795 10.7968
7.439156 96.4257 10.6377
7.599131 79.4721 9.084503
7.759107 74.6615 8.792828
7.919082 81.0089 9.191102
8.079057 70.5709 8.619230
8.239032 84.3775 9.378983
8.399007 70.8317 8.631195
8.558982 70.9011 8.631574
8.718958 119.664 11.2348
8.878933 4077.56 65.5759
9.038908 141.588 12.0906
9.198883 106.141 10.6167
9.358858 108.071 10.6087
9.518834 664.977 24.6217
9.678809 166.798 12.3614
9.838784 74.3791 8.216821
9.998759 63.3867 7.599813
10.1587 70.9904 8.090384
10.3187 68.6015 7.757693
10.4787 2327.55 46.236
10.6387 79.7181 8.562486
10.7986 102.24 9.664662
10.9586 359.445 18.081
11.1186 76.8341 8.367342
11.2786 65.3335 7.719422
11.4385 72.7201 8.194995
11.5985 2656.52 46.9687
11.7585 80.0947 8.061154
11.9185 67.3505 7.474912
12.0784 74.0786 7.825349
12.2384 66.4007 7.375754
12.3984 66.2007 7.390043
12.5584 60.9006 7.031583
12.7183 71.1817 7.602583
12.8783 90.3769 8.578123
13.0383 499.37 20.3555
13.1983 106.098 9.364791
13.3582 84.6662 8.402688
13.5182 71.9419 7.269381
13.6782 78.4133 7.616980
13.8382 77.1046 7.570729
13.9981 105.202 8.801042
14.1581 1073.76 28.3781
14.3181 197.801 12.1076
14.4781 79.4351 7.739116
14.638 82.6053 7.856072
14.798 81.0901 7.798396
14.958 93.2838 8.344049
15.118 121.623 9.540040
15.2779 80.0442 7.727766
15.4379 69.8261 7.133395
15.5979 74.4077 7.086587
15.7579 76.2524 7.193949
15.9178 70.0171 6.921561
16.0778 106.603 8.487343
16.2378 17134.8 108.496
16.3978 125.102 9.264765
16.5577 406.227 16.6553
16.7177 144.321 9.894555
16.8777 72.6802 7.052438
17.0377 87.9834 7.737532
17.1976 70.5767 6.926871
17.3576 76.1654 7.195952
17.5176 70.812 6.945182
17.6776 72.0346 7.011377
17.8375 91.978 7.865443
17.9975 84.9548 7.594977
18.1575 75.4136 7.141013
18.3175 335.508 15.1892
18.4774 279.591 13.8557
18.6374 61.3059 6.467604
18.7974 70.5864 6.904168
18.9574 73.6493 7.086969
19.1173 234.919 12.6619
19.2773 132.594 9.532005
19.4373 84.164 7.555394
19.5973 108.268 8.650765
19.7572 110.105 8.626731
19.9172 869.942 24.3753
20.0772 125.393 9.234067
20.2372 111.718 8.748014
20.3971 92.4457 7.978886
20.5571 84.3596 7.603204
20.7171 475.014 18.0776
20.8771 81.4673 7.480341
21.037 1224.05 28.9977
21.197 2708.2 43.0756
21.357 78.3226 7.215266
21.517 89.21 7.754129
21.6769 83.9564 7.552047
21.8369 141.5 9.816588
21.9969 190.129 11.4105
22.1569 79.7267 7.412195
22.3168 87.4549 7.693981
22.4768 306.062 14.488
22.6368 82.0356 7.489257
22.7968 108.599 8.627767
22.9567 194.223 11.5319
23.1167 111.281 8.743427
23.2767 177.758 11.0431
23.4367 77.5312 7.246674
23.5966 78.1132 7.294691
23.7566 71.1937 6.985499
23.9166 68.6624 6.821198
24.0766 75.2573 7.120992
24.2366 63.7201 6.537187
24.3965 81.5782 7.455476
24.5565 83.2707 7.553733
24.7165 67.1657 6.700616
24.8765 90.9777 7.851130
25.0364 76.2967 7.158853
25.1964 316.042 14.6846
25.3564 99.9898 8.191067
25.5164 1272.09 29.5141
25.6763 91.3502 7.939774
25.8363 73.696 7.099789
25.9963 81.1036 7.414506
26.1563 84.3868 7.614196
26.3162 104.931 8.468068
26.4762 83.0793 7.531442
26.6362 176.413 10.9789
26.7962 113.692 8.771074
26.9561 320.433 14.8777
27.1161 104.553 8.423688
27.2761 75.1936 7.099668
27.4361 101.393 8.259142
27.596 470.677 17.926
27.756 99.8376 8.226240
27.916 86.2664 7.625295
28.076 124.057 9.582594
28.2359 99.0498 8.503403
28.3959 403.903 17.3285
28.5559 83.7077 7.843945
28.7159 659.334 22.1975
28.8758 109.079 9.001325
29.0358 170.566 11.2872
29.1958 82.8204 7.835375
29.3558 72.4728 7.368850
29.5157 77.0514 7.520413
29.6757 84.4396 7.840171
29.8357 80.3266 7.705192
29.9957 129.926 10.2775
30.1556 101.56 9.079258
30.3156 210.429 12.9698
30.4756 88.2558 8.447094
30.6356 68.1928 7.421037
30.7955 81.8224 8.085642
30.9555 108.267 9.394856
31.1155 88.7093 8.476446
31.2755 83.091 8.267855
31.4354 77.9396 8.001138
31.5954 72.233 7.688777
31.7554 83.7135 8.218190
31.9154 1689.46 37.1933
32.0753 108.7 9.898552
32.2353 80.7711 8.546945
32.3953 94.6696 9.343713
32.5553 76.367 8.319462
32.7152 62.9188 7.560070
32.8752 69.5452 7.873066
33.0352 93.2922 9.127287
33.1952 80.8609 8.526581
33.3551 125.66 10.6054
33.5151 124.136 10.5642
33.6751 90.6465 9.053274
33.8351 78.2271 8.385498
33.995 72.215 8.487510
34.155 94.8494 9.657746
34.315 87.9353 9.297502
34.475 133.38 11.5553
34.6349 100.256 10.1328
34.7949 1638.02 40.5738
34.9549 141.738 12.0096
35.1149 104.193 10.2909
35.2748 445.898 21.1537
35.4348 104.082 10.1888
35.5948 90.4705 9.574238
35.7548 83.9848 9.196031
35.9147 1025.67 32.0672
36.0747 394.094 21.0317
36.2347 71.0724 8.804280
36.3947 78.0321 9.386340
36.5546 110.022 11.0708
36.7146 125.697 11.716
36.8746 74.3955 9.072897
37.0346 150.363 12.9497
37.1945 157.562 13.3379
37.3545 96.2739 10.4124
37.5145 902.119 31.6531
37.6745 76.0947 9.108659
37.8344 65.1466 8.385876
37.9944 74.7027 9.808947
38.1544 65.6162 9.133021
38.3144 86.0617 10.6315
38.4743 154.948 14.3002
38.6343 90.5692 10.8911
38.7943 396.027 22.7451
38.9543 133.876 13.2322
39.1142 75.5304 9.856698
39.2742 70.7938 9.480082
39.4342 88.6267 10.7677
39.5942 148.046 13.9685
39.7541 63.3171 9.055695
39.9141 93.558 11.0255
40.0741 695.539 33.3769
40.2341 88.8735 11.8799
40.394 73.8123 10.8435
40.554 101.219 12.7244
40.714 93.6846 12.2358
40.874 97.854 12.6439
41.0339 814.67 36.0438
41.1939 258.986 20.3602
41.3539 127.612 14.2503
41.5139 68.093 10.4319
41.6738 103.037 12.8341
41.8338 57.0966 9.380547
41.9938 139.87 16.6611
42.1538 95.968 13.6369
42.3137 91.9596 13.241
42.4737 549.462 32.6729
42.6337 342.917 25.7908
42.7937 76.7137 12.2843
42.9536 69.4403 11.5917
43.1136 66.0385 11.3844
43.2736 81.3169 12.5652
43.4336 430.34 28.9313
43.5935 73.3335 11.7867
43.7535 83.5569 12.7226
43.9135 83.3162 12.6888
44.0735 166.607 21.2955
44.2334 115.944 17.7388
44.3934 89.7456 15.5877
44.5534 255.956 26.496
44.7134 192.663 22.8712
44.8733 105.726 16.9653
45.0333 94.9269 16.1396
45.1933 81.5647 14.7978
45.3533 77.3186 14.4418
45.5132 70.816 13.7438
45.6732 202.717 23.4253
45.8332 54.4214 12.056
45.9932 96.893 19.4881
46.1531 86.6539 18.3925
46.3131 154.224 24.5909
46.4731 64.8143 15.935
46.6331 52.5154 14.3601
46.7931 147.394 24.0605
46.953 244.249 30.926
47.113 117.695 21.2085
47.273 97.8559 19.4348
47.433 74.3509 16.9794
47.5929 52.7932 14.3593
47.7529 71.8316 16.7818
47.9129 111.098 20.8118
48.0729 168.459 36.6488
48.2328 65.5236 22.8489
48.3928 62.6719 22.1762
48.5528 60.355 21.8976
48.7128 85.7637 26.096
48.8727 48.5847 19.6598
49.0327 119.397 30.837
49.1927 199.993 39.8798
49.3527 52.6825 20.4734
49.5126 75.0233 24.4383
49.6726 59.0006 21.6375
49.8326 53.5892 20.6089
49.9896 440.858 59.1681