File: Samples/PowderCalibrations/Si_640d.xy
XYDATA
! 11BM APS Si SRM 640d
! File no. =              6098
! No. steps =             34500
! Scan time =             AUG 15, 2014 21:05
! Sample name =     	  NIST SRM 640d (Si)
! Composition =           Silicon (Si)
! Sample Comment =        0.8 mm dia Kapton
! Temp (K) =              295.6
! 2theta step (deg) =     0.001
! Time per step (sec) =   0.1
! 100/Ring Current[0] =   1.004
! Monitor I0 [0] =        86940.6
! Monitor I1 [0] =        71229.8
! Gonio._radius [mm] =    1000.0
! Calibration file =      11bmb_6097_2thcorr.calib
! 2Theta correction subtracted
! Normalization factor  = 7.8467
! Calibrated wavelength = 0.413848
! Fullprof format INSTRM=10 (x, y, sigma)
INTER 1.0 1.0  2 0.00100
! ---------------------------------------
! degrees       intensity        sigma
0.50000       323.9196        26.1318
0.69198       299.5846        25.1368
0.88395       249.2369        23.0152
1.07593       252.3082        23.1743
1.26790       213.9998        21.2459
1.45988       199.1769        20.5175
1.65185       176.4215        19.3116
1.84383       134.5572        16.8938
2.03580       138.1748        15.4762
2.22778       110.9985        13.7838
2.41975       123.8296        14.5097
2.61173        91.3750        12.4143
2.80370        99.4765        13.0388
2.99568       100.8642        13.1218
3.18765        92.8252        12.4955
3.37963        75.5190        11.4034
3.57160        96.9526        12.9692
3.76358       105.6004        13.4967
3.95555        93.9689        12.6542
4.14753       107.8230        12.3316
4.33951       117.7786        12.8010
4.53148       121.0685        12.9282
4.72346       135.8290        13.6871
4.91543       139.9549        14.0132
5.10741       149.5283        14.4598
5.29938       142.3647        14.1009
5.49136       139.9559        13.9894
5.68333       130.3499        13.5450
5.87531       127.3544        13.3484
6.06728       111.0202        11.3395
6.25926       100.5905        10.8497
6.45123       113.4775        11.4368
6.64321        91.3948        10.2844
6.83518       106.0690        11.1168
7.02716       112.9453        11.4241
7.21913        99.3668        10.6350
7.41111       128.3677        12.2429
7.60308      1446.11        41.1057
7.79506        98.7387        10.6900
7.98704        97.2000        10.6307
8.17901        84.8610         9.3423
8.37099        75.2729         8.7867
8.56296        72.0802         8.5330
8.75494        77.7468         8.9043
8.94691        76.2371         8.7794
9.13889        70.8348         8.5253
9.33086        71.0042         8.4220
9.52284        76.5697         8.8913
9.71481        78.7550         8.9422
9.90679        73.8986         8.6428
10.09876        78.0786         8.3758
10.29074        83.4036         8.6133
10.48271        74.9898         8.2396
10.67469        84.4573         8.7103
10.86666        70.9980         7.8931
11.05864        80.3169         8.4126
11.25061        77.4505         8.2827
11.44259        86.5344         8.7404
11.63457        94.9731         9.1858
11.82654       107.6649         9.7576
12.01852       108.4829         9.3493
12.21049       122.3372         9.8507
12.40247      1719.04        37.1710
12.59444       129.7655        10.1982
12.78642       117.2562         9.7361
12.97839       107.3928         9.3133
13.17037       104.0040         9.1696
13.36234        92.5051         8.6474
13.55432        87.7163         8.4232
13.74629        94.9260         8.7550
13.93827        95.4597         8.8184
14.13024       100.2108         8.5101
14.32222        94.1960         8.2864
14.51419     32011.1       152.3635
14.70617       109.9406         8.9598
14.89814       105.0550         8.6949
15.09012       100.6908         8.5312
15.28210        87.0169         7.9322
15.47407        87.4341         7.9756
15.66605        84.6578         7.7929
15.85802        88.2364         7.9708
16.05000        80.8797         7.3624
16.24197        81.8595         7.3571
16.43395        78.5863         7.1998
16.62592        87.6306         7.5981
16.81790        68.3068         6.7117
17.00987        80.2254         7.3041
17.20185        85.2959         7.4866
17.39382        97.8327         8.0945
17.58580       208.5675        11.7969
17.77777        85.0285         7.4681
17.96975        94.2766         7.9198
18.16172        86.1051         7.5302
18.35370        90.4594         7.7337
18.54567        75.4464         6.9947
18.73765       103.1129         8.2257
18.92963       110.5960         8.5664
19.12160     36031.8       154.9020
19.31358        96.4781         8.0208
19.50555       106.4143         8.3654
19.69753       115.6858         8.8134
19.88950       106.3762         8.3840
20.08148       113.5291         8.6636
20.27345       108.5680         8.5251
20.46543       127.2596         9.1837
20.65740       119.5727         8.9446
20.84938       126.4924         9.1621
21.04135       124.1687         9.0274
21.23333       129.3370         9.2874
21.42530       182.6300        11.0677
21.61728       182.9711        11.0374
21.80925       126.6548         9.1520
22.00123       119.5944         8.8689
22.19320       114.4498         8.7349
22.38518       131.8227         9.3987
22.57716       106.2812         8.3719
22.76913       182.3733        11.0471
22.96111       137.0587         9.5241
23.15308       127.8788         9.2730
23.34506       117.8051         8.8829
23.53703       110.3366         8.5591
23.72901       107.4599         8.4481
23.92098       107.3664         8.4566
24.11296       104.4725         8.3453
24.30493       125.2051         9.1708
24.49691       112.2715         8.6781
24.68888       130.5615         9.3303
24.88086      1366.08        30.1393
25.07283       120.7104         8.9357
25.26481       104.4895         8.3481
25.45678       112.2257         8.6776
25.64876       119.6061         8.8867
25.84073       119.4977         8.9452
26.03271       875.8580        24.1836
26.22469       112.8850         8.7427
26.41666       118.3760         8.9024
26.60864       113.1069         8.7145
26.80061       102.4140         8.2078
26.99259       104.7195         8.3898
27.18456       100.3679         8.1495
27.37654        87.7091         7.6645
27.56851       105.6535         8.3623
27.76049       113.9681         8.6978
27.95246       165.6959        10.5410
28.14444       119.9846         9.2999
28.33641       113.1366         8.9761
28.52839       108.9914         8.8545
28.72036        99.5100         8.4804
28.91234       292.2432        14.5284
29.10431        98.4899         8.4541
29.29629       103.7493         8.6356
29.48826       120.1672         9.3422
29.68024        95.8126         8.3269
29.87221        94.7644         8.2879
30.06419       114.7001         9.5528
30.25617       115.1447         9.5620
30.44814        97.9070         8.9005
30.64012       175.5967        11.7686
30.83209       104.3154         9.0814
31.02407       100.6661         8.8660
31.21604       116.4630         9.6172
31.40802       125.6430        10.0463
31.59999       430.5106        18.4483
31.79197       120.5864         9.7922
31.98394       106.3495         9.1337
32.17592       106.6654         9.6844
32.36789       111.1690         9.9616
32.55987       115.1042        10.0900
32.75184       114.5264        10.0764
32.94382       118.9009        10.1599
33.13579      8090.14        84.4884
33.32777       120.5552        10.2478
33.51974       126.3846        10.5647
33.71172       131.8687        10.8166
33.90370       116.5913        10.1492
34.09567       168.2047        12.8464
34.28765       127.0320        11.1464
34.47962       115.5645        10.6524
34.67160       108.8862        10.2668
34.86357       118.0398        10.6979
35.05555        93.1389         9.5020
35.24752       106.4119        10.1085
35.43950       108.8068        10.3105
35.63147       100.9951         9.8642
35.82345        93.0710         9.5395
36.01542        92.5444        10.0546
36.20740       101.1983        10.4127
36.39937       110.4393        10.9186
36.59135        90.6811         9.9430
36.78332        91.4647        10.0349
36.97530        92.6602         9.9776
37.16727        97.6000        10.3597
37.35925        96.1487        10.1845
37.55123        98.6272        10.3170
37.74320       377.6363        20.2526
37.93518       103.8732        10.5636
38.12715        90.9266        10.7439
38.31913       112.2102        11.9569
38.51110       265.1575        18.3235
38.70308        97.3032        11.0815
38.89505        94.4347        10.9558
39.08703       108.7829        11.7303
39.27900        99.3082        11.1511
39.47098        93.0641        10.8708
39.66295        82.2219        10.1885
39.85493      1125.82        37.8007
40.04690        89.1653        11.7371
40.23888        99.7685        12.3760
40.43085        96.3641        12.2858
40.62283      3001.35        68.3164
40.81480        97.4145        12.3361
41.00678       108.1905        13.0829
41.19876        97.4170        12.2229
41.39073       108.0584        12.9364
41.58271       101.6915        12.5184
41.77468        94.4216        12.1144
41.96666       106.7733        12.9887
42.15863        99.2297        13.7132
42.35061        85.0073        12.6437
42.54258        88.4180        12.8973
42.73456       105.2515        14.1456
42.92653        95.5081        13.4580
43.11851        85.1325        12.6552
43.31048        87.7424        12.9836
43.50246        84.5306        12.7156
43.69443        87.2364        12.9002
43.88641       106.0851        14.0322
44.07838        77.5862        14.2284
44.27036        92.7285        15.6215
44.46233       104.4420        16.3954
44.65431       101.6907        16.2543
44.84629       122.8843        17.9940
45.03826        84.6587        14.9480
45.23024        65.9231        13.1729
45.42221        67.3372        13.1933
45.61419       111.0306        17.0735
45.80616       109.1822        16.9307
45.99814        94.7413        19.1297
46.19011        66.6602        16.0579
46.38209       101.3674        19.7299
46.57406        68.6016        16.2186
46.76604        86.1760        18.2521
46.95801        79.1214        17.5264
47.14999        86.3768        18.2931
47.34196        84.2621        18.0939
47.53394        54.1313        14.4823
47.72591        60.0238        14.6586
47.91789        66.6514        15.9710
48.10986        47.7572        19.1125
48.30184        69.7745        23.3307
48.49382        42.4911        18.1438
48.68579        82.3717        25.2679
48.87777        81.7583        25.2573
49.06974        84.9670        25.6592
49.26172        88.7866        26.1099
49.45369        73.1288        23.5551
49.64567        82.2993        25.2777
49.83764        35.7180        16.4929
49.98862       562.0410        66.2593