File: Samples/PowderCalibrations/ZnO_674b.xy
XYDATA
! Title:  11BM APS ZnO
INTER 1.0 1.0 2 0.0010
TEMP 295.0
! Fullprof format INSTRM=10 (x, y, sigma)
! Run no. =               4715
! No. steps =             34500
! Scan time =             MAY 31, 2014 23:52
! Sample name =     	  NIST SRM 674b (ZnO)
! Composition =           Zinc Oxide
! Sample Comment =        0.8 mm dia Kapton
! Temp (K) =              295.0
! 2theta step (deg) =     0.001
! Time per step (sec) =   0.1
! 100/Ring Current[0] =   1.025
! Monitor I0 [0] =        89933.5
! Monitor I1 [0] =        73484.6
! Gonio._radius [mm] =    1000.0
! Calibration file =      11bmb_4699_2thcorr.calib
! 2Theta correction subtracted
! Normalization factor  = 8.1812
! Calibrated wavelength = 0.413671
!
! 2theta, intensity, sigma(intensity)
2.000000 116.029 14.4765
2.159975 109.791 14.0344
2.319950 94.369 13.0533
2.479926 98.1221 13.2892
2.639901 85.917 12.4194
2.799876 74.552 11.4817
2.959851 82.2888 12.1653
3.119826 83.6382 12.1708
3.279801 74.119 11.4513
3.439777 63.5118 10.5965
3.599752 81.6293 10.8976
3.759727 91.0313 11.4961
3.919702 86.9939 11.2247
4.079677 104.529 12.1935
4.239653 102.319 12.265
4.399628 98.996 11.9665
4.559603 109.6 12.5405
4.719578 95.029 11.7019
4.879553 120.695 13.2551
5.039528 118.186 13.013
5.199504 115.886 12.9766
5.359479 98.7623 11.9213
5.519454 110.406 11.5717
5.679429 84.1948 9.984156
5.839404 83.1194 9.951594
5.999380 75.6852 9.468785
6.159355 83.7814 10.0509
6.319330 74.9876 9.556487
6.479305 98.1531 10.7769
6.639280 80.3558 9.906311
6.799255 80.1849 9.776507
6.959231 74.0745 9.419366
7.119206 64.0942 8.747546
7.279181 78.1319 9.789829
7.439156 64.7676 8.939993
7.599131 59.7821 7.883051
7.759107 66.242 8.301024
7.919082 48.5308 7.105291
8.079057 60.0892 7.937972
8.239032 73.9451 8.861193
8.399007 1184.28 35.5724
8.558982 115.099 11.1027
8.718958 69.3904 8.565492
8.878933 69.2277 8.535390
9.038908 161.201 13.0855
9.198883 114.149 11.0874
9.358858 84.9522 9.484477
9.518834 504.974 21.6091
9.678809 230.008 14.6103
9.838784 64.9165 7.619092
9.998759 68.8378 7.969479
10.1587 52.887 6.870419
10.3187 46.2289 6.482632
10.4787 53.5592 7.071216
10.6387 38.9128 5.965467
10.7986 50.4505 6.853559
10.9586 52.1357 6.946902
11.1186 51.331 6.819967
11.2786 46.5524 6.453448
11.4385 50.6185 6.771042
11.5985 42.6297 5.897278
11.7585 57.5233 6.850540
11.9185 40.249 5.764594
12.0784 55.5329 6.731118
12.2384 61.1311 7.147499
12.3984 818.124 26.2052
12.5584 77.0521 7.939263
12.7183 51.9357 6.525915
12.8783 50.1851 6.418379
13.0383 39.26 5.746686
13.1983 38.2444 5.561681
13.3582 52.1663 6.578737
13.5182 51.1621 6.161710
13.6782 50.9276 6.211002
13.8382 41.9942 5.588990
13.9981 49.2473 6.093474
14.1581 40.6058 5.581761
14.3181 66.9485 7.090977
14.4781 85.5289 8.001516
14.638 4824.26 60.4373
14.798 74.704 7.468643
14.958 63.7667 6.920250
15.118 62.9593 6.920068
15.2779 64.406 6.931633
15.4379 56.1552 6.519833
15.5979 65.0474 6.726059
15.7579 65.3823 6.656226
15.9178 86.9173 7.734926
16.0778 2316.94 39.9639
16.2378 87.2009 7.757357
16.3978 63.8148 6.591370
16.5577 66.3998 6.725546
16.7177 62.6338 6.486151
16.8777 271.037 13.673
17.0377 83.0378 7.592132
17.1976 229.212 12.5849
17.3576 139.854 9.858853
17.5176 8836.78 78.1997
17.6776 61.3037 6.475543
17.8375 64.4195 6.656143
17.9975 57.7228 6.277187
18.1575 55.6708 6.158239
18.3175 103.75 8.415362
18.4774 56.3243 6.217021
18.6374 61.8598 6.538454
18.7974 52.287 5.972572
18.9574 51.6492 5.929221
19.1173 53.1158 5.998546
19.2773 110.834 8.706787
19.4373 55.3031 6.091615
19.5973 58.6084 6.363079
19.7572 45.0345 5.567424
19.9172 44.1982 5.486304
20.0772 54.02 6.057900
20.2372 63.8951 6.602725
20.3971 45.4703 5.511095
20.5571 57.9122 6.295389
20.7171 49.2513 5.771560
20.8771 49.7584 5.836749
21.037 62.2225 6.513852
21.197 62.0152 6.530885
21.357 58.891 6.351904
21.517 64.7564 6.678545
21.6769 80.2341 7.397760
21.8369 602.364 20.3166
21.9969 72.7994 7.057874
22.1569 58.5374 6.220070
22.3168 76.234 7.251325
22.4768 93.9644 8.057547
22.6368 69.6168 6.835159
22.7968 93.2921 7.973101
22.9567 137.023 9.679874
23.1167 68.3533 6.833710
23.2767 63.6973 6.543546
23.4367 103.029 8.382261
23.5966 71.6349 6.967486
23.7566 59.1388 6.294035
23.9166 69.6533 6.869387
24.0766 64.7738 6.605530
24.2366 750.915 22.7288
24.3965 124.089 9.212403
24.5565 82.3218 7.450967
24.7165 65.012 6.664400
24.8765 70.3505 6.913569
25.0364 85.8898 7.643434
25.1964 54.8894 6.057892
25.3564 66.3934 6.737564
25.5164 121.294 9.127065
25.6763 62.6187 6.497640
25.8363 61.4583 6.459118
25.9963 68.6196 6.860809
26.1563 63.6684 6.598810
26.3162 174.97 10.9358
26.4762 72.303 7.080665
26.6362 61.3699 6.473640
26.7962 63.3119 6.561458
26.9561 54.5803 6.066676
27.1161 1134.26 27.9105
27.2761 53.0744 5.994445
27.4361 57.7028 6.219110
27.596 105.115 8.539508
27.756 58.675 6.402000
27.916 42.667 5.365508
28.076 51.7544 6.158403
28.2359 61.8661 6.772891
28.3959 59.199 6.614426
28.5559 83.5766 7.880820
28.7159 61.6904 6.798293
28.8758 239.275 13.3849
29.0358 75.0501 7.393610
29.1958 65.5582 6.883118
29.3558 59.1201 6.697255
29.5157 201.058 12.1896
29.6757 55.1074 6.344009
29.8357 57.2544 6.423249
29.9957 70.8624 7.471451
30.1556 51.9322 6.446063
30.3156 57.9432 6.771039
30.4756 78.9421 8.011691
30.6356 57.6983 6.820734
30.7955 70.4525 7.513782
30.9555 220.268 13.4258
31.1155 145.953 10.885
31.2755 69.3651 7.424799
31.4354 64.6329 7.242095
31.5954 65.8609 7.341042
31.7554 53.2664 6.515364
31.9154 60.6069 6.936749
32.0753 67.6904 7.762338
32.2353 133.096 10.9917
32.3953 63.7983 7.604029
32.5553 77.7622 8.376373
32.7152 62.2621 7.507677
32.8752 49.4532 6.587034
33.0352 48.4647 6.591181
33.1952 52.9565 6.887003
33.3551 59.7929 7.263988
33.5151 57.3695 7.179059
33.6751 68.6201 7.859924
33.8351 69.4055 7.892730
33.995 58.2699 7.613121
34.155 61.4186 7.766645
34.315 46.9561 6.764404
34.475 63.8201 8.000528
34.6349 53.8055 7.338068
34.7949 49.6397 6.956241
34.9549 78.36 8.796409
35.1149 47.9589 6.841579
35.2748 40.4716 6.272880
35.4348 72.261 8.367303
35.5948 57.8603 7.584964
35.7548 58.0055 7.596657
35.9147 50.6135 7.076143
36.0747 58.8086 7.969158
36.2347 54.869 7.772302
36.3947 40.4552 6.738075
36.5546 44.8157 7.056258
36.7146 36.3169 6.400155
36.8746 56.5306 7.788168
37.0346 70.2363 8.662738
37.1945 59.6207 8.077488
37.3545 133.308 12.1526
37.5145 60.8581 8.204917
37.6745 270.743 17.3755
37.8344 72.258 8.969377
37.9944 49.7889 8.072296
38.1544 54.4343 8.416647
38.3144 46.0089 7.741704
38.4743 61.7911 8.854020
38.6343 95.9698 11.2267
38.7943 54.1529 8.333764
38.9543 53.2128 8.259816
39.1142 63.4485 9.072448
39.2742 66.1615 9.174505
39.4342 54.3996 8.499459
39.5942 72.766 9.546744
39.7541 61.1872 8.944925
39.9141 61.8298 8.804608
40.0741 81.1163 11.3927
40.2341 51.8956 9.054402
40.394 64.8002 10.1419
40.554 61.854 9.902234
40.714 56.2401 9.521600
40.874 53.8916 9.304506
41.0339 48.8252 8.800360
41.1939 34.1634 7.395556
41.3539 67.6747 10.3735
41.5139 55.288 9.203593
41.6738 48.8049 8.943506
41.8338 45.011 8.414711
41.9938 49.4566 9.747866
42.1538 42.7861 9.137385
42.3137 38.2624 8.572076
42.4737 32.2628 7.884944
42.6337 52.3146 9.905687
42.7937 65.4321 11.1294
42.9536 38.3747 8.587754
43.1136 81.905 12.64
43.2736 43.0179 9.159283
43.4336 48.4581 9.570648
43.5935 47.2287 9.369436
43.7535 160.774 17.6779
43.9135 44.037 9.155276
44.0735 52.0226 11.5965
44.2334 46.3464 11.1598
44.3934 52.6702 11.9163
44.5534 34.2911 9.562253
44.7134 44.4687 11.0352
44.8733 47.2688 11.2748
45.0333 40.8595 10.6032
45.1933 91.2462 15.6798
45.3533 46.9252 11.1738
45.5132 243.691 25.5291
45.6732 49.8561 11.5891
45.8332 42.8845 10.641
45.9932 68.1302 16.2663
46.1531 34.9721 11.6678
46.3131 41.5491 12.5152
46.4731 42.519 12.8183
46.6331 37.7778 11.8997
46.7931 52.3395 14.2899
46.953 44.5685 13.0803
47.113 42.9421 12.9197
47.273 43.1821 12.8068
47.433 33.2781 11.3619
47.5929 44.9621 12.8899
47.7529 47.6339 13.5847
47.9129 51.4543 14.0806
48.0729 85.9956 26.0299
48.2328 53.5285 20.5229
48.3928 49.3075 18.8992
48.5528 183.263 38.0017
48.7128 104.344 28.677
48.8727 98.2594 27.5513
49.0327 55.1769 20.8649
49.1927 20.4741 10.8973
49.3527 59.8926 21.6965
49.5126 12.4538 9.769954
49.6726 71.9987 23.7728
49.8326 43.2525 18.2638
49.9896 8.616170 8.152978